[frequency (THz)]	[wavelength (nm)]	[intensity]	[phase (rad)]
430.179	697.385	0.000	-524.923
430.117	697.485	0.000	-523.731
430.055	697.586	0.000	-522.545
429.992	697.687	0.000	-521.368
429.930	697.787	0.000	-520.197
429.868	697.888	0.000	-519.030
429.806	697.989	0.000	-517.870
429.744	698.090	0.000	-516.713
429.682	698.191	0.000	-515.563
429.620	698.292	0.000	-514.414
429.558	698.392	0.000	-513.271
429.496	698.493	0.000	-512.131
429.434	698.594	0.000	-510.993
429.372	698.695	0.000	-509.860
429.310	698.796	0.000	-508.729
429.248	698.897	0.000	-507.601
429.185	698.999	0.000	-506.475
429.123	699.100	0.000	-505.352
429.061	699.201	0.000	-504.230
428.999	699.302	0.000	-503.110
428.937	699.403	0.000	-501.993
428.875	699.504	0.000	-500.877
428.813	699.606	0.000	-499.762
428.751	699.707	0.000	-498.650
428.689	699.808	0.000	-497.539
428.627	699.910	0.000	-496.428
428.565	700.011	0.000	-495.321
428.503	700.113	0.000	-494.212
428.440	700.214	0.000	-493.107
428.378	700.315	0.000	-492.001
428.316	700.417	0.000	-490.898
428.254	700.518	0.000	-489.795
428.192	700.620	0.000	-488.693
428.130	700.722	0.000	-487.594
428.068	700.823	0.000	-486.494
428.006	700.925	0.000	-485.397
427.944	701.027	0.000	-484.301
427.882	701.128	0.000	-483.208
427.820	701.230	0.000	-482.116
427.758	701.332	0.000	-481.025
427.696	701.434	0.000	-479.940
427.633	701.535	0.000	-478.856
427.571	701.637	0.000	-477.779
427.509	701.739	0.000	-476.704
427.447	701.841	0.000	-475.637
427.385	701.943	0.000	-474.577
427.323	702.045	0.000	-473.524
427.261	702.147	0.000	-472.481
427.199	702.249	0.000	-471.443
427.137	702.351	0.000	-470.416
427.075	702.453	0.000	-469.392
427.013	702.555	0.000	-468.374
426.951	702.658	0.000	-467.358
426.888	702.760	0.000	-466.344
426.826	702.862	0.000	-465.332
426.764	702.964	0.000	-464.316
426.702	703.066	0.000	-463.302
426.640	703.169	0.000	-462.282
426.578	703.271	0.000	-461.261
426.516	703.373	0.000	-460.234
426.454	703.476	0.000	-459.202
426.392	703.578	0.000	-458.166
426.330	703.681	0.000	-457.123
426.268	703.783	0.000	-456.073
426.206	703.886	0.000	-455.017
426.144	703.988	0.000	-453.954
426.081	704.091	0.000	-452.884
426.019	704.193	0.000	-451.807
425.957	704.296	0.000	-450.721
425.895	704.399	0.000	-449.628
425.833	704.501	0.000	-448.527
425.771	704.604	0.000	-447.417
425.709	704.707	0.000	-446.298
425.647	704.810	0.000	-445.168
425.585	704.912	0.000	-444.030
425.523	705.015	0.000	-442.877
425.461	705.118	0.000	-441.713
425.399	705.221	0.000	-440.535
425.336	705.324	0.000	-439.345
425.274	705.427	0.000	-438.141
425.212	705.530	0.000	-436.923
425.150	705.633	0.000	-435.698
425.088	705.736	0.000	-434.460
425.026	705.839	0.000	-433.217
424.964	705.942	0.000	-431.966
424.902	706.045	0.000	-430.711
424.840	706.149	0.000	-429.450
424.778	706.252	0.000	-428.186
424.716	706.355	0.000	-426.922
424.654	706.458	0.000	-425.650
424.592	706.561	0.000	-424.382
424.529	706.665	0.000	-423.109
424.467	706.768	0.000	-421.837
424.405	706.872	0.000	-420.563
424.343	706.975	0.000	-419.290
424.281	707.078	0.000	-418.018
424.219	707.182	0.000	-416.744
424.157	707.285	0.000	-415.474
424.095	707.389	0.000	-414.202
424.033	707.493	0.000	-412.932
423.971	707.596	0.000	-411.666
423.909	707.700	0.000	-410.400
423.847	707.803	0.000	-409.137
423.784	707.907	0.000	-407.875
423.722	708.011	0.000	-406.618
423.660	708.115	0.000	-405.363
423.598	708.218	0.000	-404.111
423.536	708.322	0.000	-402.863
423.474	708.426	0.000	-401.618
423.412	708.530	0.000	-400.377
423.350	708.634	0.000	-399.141
423.288	708.738	0.000	-397.909
423.226	708.842	0.000	-396.681
423.164	708.946	0.000	-395.458
423.102	709.050	0.000	-394.239
423.039	709.154	0.000	-393.025
422.977	709.258	0.000	-391.818
422.915	709.362	0.000	-390.615
422.853	709.466	0.000	-389.417
422.791	709.570	0.000	-388.223
422.729	709.674	0.000	-387.036
422.667	709.779	0.000	-385.853
422.605	709.883	0.000	-384.678
422.543	709.987	0.000	-383.505
422.481	710.092	0.000	-382.340
422.419	710.196	0.000	-381.180
422.357	710.300	0.000	-380.026
422.295	710.405	0.000	-378.878
422.232	710.509	0.000	-377.735
422.170	710.614	0.000	-376.602
422.108	710.718	0.000	-375.472
422.046	710.823	0.000	-374.353
421.984	710.927	0.000	-373.240
421.922	711.032	0.000	-372.138
421.860	711.136	0.000	-371.044
421.798	711.241	0.000	-369.958
421.736	711.346	0.000	-368.884
421.674	711.451	0.000	-367.817
421.612	711.555	0.000	-366.764
421.550	711.660	0.000	-365.716
421.487	711.765	0.000	-364.679
421.425	711.870	0.000	-363.650
421.363	711.975	0.000	-362.628
421.301	712.080	0.000	-361.612
421.239	712.185	0.000	-360.601
421.177	712.289	0.000	-359.598
421.115	712.395	0.000	-358.598
421.053	712.500	0.000	-357.601
420.991	712.605	0.000	-356.609
420.929	712.710	0.000	-355.619
420.867	712.815	0.000	-354.632
420.805	712.920	0.000	-353.645
420.743	713.025	0.000	-352.662
420.680	713.130	0.000	-351.677
420.618	713.236	0.000	-350.694
420.556	713.341	0.000	-349.710
420.494	713.446	0.000	-348.723
420.432	713.552	0.000	-347.737
420.370	713.657	0.000	-346.748
420.308	713.762	0.000	-345.756
420.246	713.868	0.000	-344.760
420.184	713.973	0.000	-343.762
420.122	714.079	0.000	-342.761
420.060	714.184	0.000	-341.757
419.998	714.290	0.000	-340.750
419.935	714.396	0.000	-339.743
419.873	714.501	0.000	-338.734
419.811	714.607	0.000	-337.726
419.749	714.712	0.000	-336.720
419.687	714.818	0.000	-335.713
419.625	714.924	0.000	-334.711
419.563	715.030	0.000	-333.711
419.501	715.136	0.000	-332.717
419.439	715.241	0.000	-331.726
419.377	715.347	0.000	-330.741
419.315	715.453	0.000	-329.763
419.253	715.559	0.000	-328.789
419.191	715.665	0.000	-327.825
419.128	715.771	0.000	-326.864
419.066	715.877	0.000	-325.912
419.004	715.983	0.000	-324.966
418.942	716.089	0.000	-324.025
418.880	716.195	0.000	-323.091
418.818	716.302	0.000	-322.160
418.756	716.408	0.000	-321.237
418.694	716.514	0.000	-320.316
418.632	716.620	0.000	-319.401
418.570	716.727	0.000	-318.487
418.508	716.833	0.000	-317.579
418.446	716.939	0.000	-316.673
418.383	717.046	0.000	-315.770
418.321	717.152	0.000	-314.870
418.259	717.259	0.000	-313.971
418.197	717.365	0.000	-313.076
418.135	717.471	0.000	-312.182
418.073	717.578	0.000	-311.289
418.011	717.685	0.000	-310.400
417.949	717.791	0.000	-309.510
417.887	717.898	0.000	-308.622
417.825	718.005	0.000	-307.734
417.763	718.111	0.000	-306.848
417.701	718.218	0.000	-305.962
417.639	718.325	0.000	-305.076
417.576	718.431	0.000	-304.189
417.514	718.538	0.000	-303.302
417.452	718.645	0.000	-302.415
417.390	718.752	0.000	-301.527
417.328	718.859	0.000	-300.636
417.266	718.966	0.000	-299.743
417.204	719.073	0.000	-298.849
417.142	719.180	0.000	-297.949
417.080	719.287	0.000	-297.047
417.018	719.394	0.000	-296.141
416.956	719.501	0.000	-295.231
416.894	719.608	0.000	-294.315
416.831	719.715	0.000	-293.395
416.769	719.823	0.000	-292.471
416.707	719.930	0.000	-291.541
416.645	720.037	0.000	-290.610
416.583	720.144	0.000	-289.672
416.521	720.252	0.000	-288.733
416.459	720.359	0.000	-287.791
416.397	720.467	0.000	-286.849
416.335	720.574	0.000	-285.904
416.273	720.681	0.000	-284.958
416.211	720.789	0.000	-284.015
416.149	720.896	0.000	-283.070
416.086	721.004	0.000	-282.127
416.024	721.112	0.000	-281.185
415.962	721.219	0.000	-280.246
415.900	721.327	0.000	-279.310
415.838	721.435	0.000	-278.375
415.776	721.542	0.000	-277.449
415.714	721.650	0.000	-276.523
415.652	721.758	0.000	-275.607
415.590	721.866	0.000	-274.696
415.528	721.973	0.000	-273.792
415.466	722.081	0.000	-272.897
415.404	722.189	0.000	-272.010
415.342	722.297	0.000	-271.133
415.279	722.405	0.000	-270.262
415.217	722.513	0.000	-269.401
415.155	722.621	0.000	-268.545
415.093	722.729	0.000	-267.696
415.031	722.837	0.000	-266.853
414.969	722.946	0.000	-266.014
414.907	723.054	0.000	-265.180
414.845	723.162	0.000	-264.349
414.783	723.270	0.000	-263.522
414.721	723.378	0.000	-262.698
414.659	723.487	0.000	-261.876
414.597	723.595	0.000	-261.056
414.534	723.703	0.000	-260.238
414.472	723.812	0.000	-259.422
414.410	723.920	0.000	-258.607
414.348	724.029	0.000	-257.794
414.286	724.137	0.000	-256.982
414.224	724.246	0.000	-256.171
414.162	724.354	0.000	-255.360
414.100	724.463	0.000	-254.551
414.038	724.572	0.000	-253.743
413.976	724.680	0.000	-252.935
413.914	724.789	0.000	-252.128
413.852	724.898	0.000	-251.321
413.790	725.006	0.000	-250.516
413.727	725.115	0.000	-249.710
413.665	725.224	0.000	-248.906
413.603	725.333	0.000	-248.100
413.541	725.442	0.000	-247.297
413.479	725.551	0.000	-246.493
413.417	725.660	0.000	-245.690
413.355	725.769	0.000	-244.888
413.293	725.878	0.000	-244.086
413.231	725.987	0.000	-243.287
413.169	726.096	0.000	-242.485
413.107	726.205	0.000	-241.687
413.045	726.314	0.000	-240.889
412.982	726.423	0.000	-240.093
412.920	726.532	0.000	-239.299
412.858	726.642	0.000	-238.506
412.796	726.751	0.000	-237.717
412.734	726.860	0.000	-236.929
412.672	726.969	0.000	-236.146
412.610	727.079	0.000	-235.364
412.548	727.188	0.000	-234.588
412.486	727.298	0.000	-233.816
412.424	727.407	0.000	-233.048
412.362	727.517	0.000	-232.284
412.300	727.626	0.000	-231.524
412.238	727.736	0.000	-230.770
412.175	727.846	0.000	-230.018
412.113	727.955	0.000	-229.270
412.051	728.065	0.000	-228.526
411.989	728.175	0.000	-227.785
411.927	728.284	0.000	-227.046
411.865	728.394	0.000	-226.308
411.803	728.504	0.000	-225.574
411.741	728.614	0.000	-224.841
411.679	728.723	0.000	-224.109
411.617	728.833	0.000	-223.380
411.555	728.943	0.000	-222.651
411.493	729.053	0.000	-221.926
411.430	729.163	0.000	-221.202
411.368	729.273	0.000	-220.481
411.306	729.384	0.000	-219.761
411.244	729.494	0.000	-219.045
411.182	729.604	0.000	-218.331
411.120	729.714	0.000	-217.621
411.058	729.824	0.000	-216.914
410.996	729.934	0.000	-216.211
410.934	730.045	0.000	-215.511
410.872	730.155	0.000	-214.813
410.810	730.265	0.000	-214.120
410.748	730.376	0.000	-213.429
410.686	730.486	0.000	-212.743
410.623	730.596	0.000	-212.058
410.561	730.707	0.000	-211.376
410.499	730.817	0.000	-210.696
410.437	730.928	0.000	-210.019
410.375	731.039	0.000	-209.344
410.313	731.149	0.000	-208.671
410.251	731.260	0.000	-208.000
410.189	731.371	0.000	-207.330
410.127	731.481	0.000	-206.663
410.065	731.592	0.000	-205.997
410.003	731.703	0.000	-205.333
409.941	731.813	0.000	-204.671
409.878	731.924	0.000	-204.010
409.816	732.035	0.000	-203.352
409.754	732.146	0.000	-202.694
409.692	732.257	0.000	-202.039
409.630	732.368	0.000	-201.385
409.568	732.479	0.000	-200.732
409.506	732.590	0.000	-200.081
409.444	732.701	0.000	-199.429
409.382	732.812	0.000	-198.780
409.320	732.923	0.000	-198.131
409.258	733.035	0.000	-197.483
409.196	733.146	0.000	-196.833
409.133	733.257	0.000	-196.185
409.071	733.368	0.000	-195.537
409.009	733.480	0.000	-194.888
408.947	733.591	0.000	-194.238
408.885	733.702	0.000	-193.588
408.823	733.814	0.000	-192.938
408.761	733.925	0.000	-192.285
408.699	734.037	0.000	-191.633
408.637	734.148	0.000	-190.978
408.575	734.260	0.000	-190.323
408.513	734.371	0.000	-189.666
408.451	734.483	0.000	-189.009
408.389	734.595	0.000	-188.349
408.326	734.706	0.000	-187.688
408.264	734.818	0.000	-187.027
408.202	734.930	0.000	-186.362
408.140	735.042	0.000	-185.697
408.078	735.153	0.000	-185.031
408.016	735.265	0.000	-184.364
407.954	735.377	0.000	-183.694
407.892	735.489	0.000	-183.024
407.830	735.601	0.000	-182.353
407.768	735.713	0.000	-181.680
407.706	735.825	0.000	-181.007
407.644	735.937	0.000	-180.331
407.581	736.049	0.000	-179.656
407.519	736.161	0.000	-178.980
407.457	736.273	0.000	-178.302
407.395	736.386	0.000	-177.625
407.333	736.498	0.000	-176.946
407.271	736.610	0.000	-176.269
407.209	736.723	0.000	-175.590
407.147	736.835	0.000	-174.912
407.085	736.947	0.000	-174.235
407.023	737.060	0.000	-173.559
406.961	737.172	0.000	-172.885
406.899	737.285	0.000	-172.212
406.837	737.397	0.000	-171.546
406.774	737.510	0.000	-170.884
406.712	737.622	0.000	-170.233
406.650	737.735	0.000	-169.595
406.588	737.847	0.000	-168.979
406.526	737.960	0.000	-168.389
406.464	738.073	0.000	-167.820
406.402	738.185	0.000	-167.270
406.340	738.298	0.000	-166.730
406.278	738.411	0.000	-166.200
406.216	738.524	0.000	-165.675
406.154	738.637	0.000	-165.156
406.092	738.750	0.000	-164.641
406.029	738.863	0.000	-164.131
405.967	738.976	0.000	-163.626
405.905	739.089	0.000	-163.125
405.843	739.202	0.000	-162.632
405.781	739.315	0.000	-162.147
405.719	739.428	0.000	-161.673
405.657	739.541	0.000	-161.210
405.595	739.654	0.000	-160.762
405.533	739.768	0.000	-160.329
405.471	739.881	0.000	-159.910
405.409	739.994	0.000	-159.503
405.347	740.108	0.000	-159.106
405.285	740.221	0.000	-158.716
405.222	740.334	0.000	-158.332
405.160	740.448	0.000	-157.953
405.098	740.561	0.000	-157.577
405.036	740.675	0.000	-157.204
404.974	740.788	0.000	-156.833
404.912	740.902	0.000	-156.463
404.850	741.015	0.000	-156.096
404.788	741.129	0.000	-155.728
404.726	741.243	0.000	-155.363
404.664	741.356	0.000	-154.997
404.602	741.470	0.000	-154.632
404.540	741.584	0.000	-154.268
404.477	741.698	0.000	-153.904
404.415	741.812	0.000	-153.541
404.353	741.926	0.000	-153.177
404.291	742.039	0.000	-152.815
404.229	742.153	0.000	-152.452
404.167	742.267	0.000	-152.090
404.105	742.381	0.000	-151.729
404.043	742.495	0.000	-151.368
403.981	742.610	0.000	-151.009
403.919	742.724	0.000	-150.650
403.857	742.838	0.000	-150.295
403.795	742.952	0.000	-149.942
403.733	743.066	0.000	-149.593
403.670	743.181	0.000	-149.251
403.608	743.295	0.000	-148.917
403.546	743.409	0.000	-148.597
403.484	743.524	0.000	-148.295
403.422	743.638	0.000	-148.011
403.360	743.753	0.000	-147.745
403.298	743.867	0.000	-147.491
403.236	743.982	0.000	-147.245
403.174	744.096	0.000	-147.005
403.112	744.211	0.000	-146.767
403.050	744.325	0.000	-146.530
402.988	744.440	0.000	-146.293
402.925	744.555	0.000	-146.054
402.863	744.669	0.000	-145.813
402.801	744.784	0.000	-145.570
402.739	744.899	0.000	-145.323
402.677	745.014	0.000	-145.072
402.615	745.129	0.000	-144.817
402.553	745.244	0.000	-144.557
402.491	745.359	0.000	-144.291
402.429	745.473	0.000	-144.020
402.367	745.589	0.000	-143.743
402.305	745.704	0.000	-143.461
402.243	745.819	0.000	-143.171
402.180	745.934	0.000	-142.877
402.118	746.049	0.000	-142.576
402.056	746.164	0.000	-142.270
401.994	746.279	0.000	-141.959
401.932	746.395	0.000	-141.641
401.870	746.510	0.000	-141.320
401.808	746.625	0.000	-140.993
401.746	746.741	0.000	-140.663
401.684	746.856	0.000	-140.327
401.622	746.972	0.000	-139.988
401.560	747.087	0.000	-139.644
401.498	747.203	0.000	-139.296
401.436	747.318	0.000	-138.943
401.373	747.434	0.000	-138.585
401.311	747.549	0.000	-138.224
401.249	747.665	0.000	-137.855
401.187	747.781	0.000	-137.481
401.125	747.896	0.000	-137.099
401.063	748.012	0.000	-136.707
401.001	748.128	0.000	-136.305
400.939	748.244	0.000	-135.890
400.877	748.360	0.000	-135.463
400.815	748.476	0.000	-135.022
400.753	748.591	0.000	-134.572
400.691	748.708	0.000	-134.113
400.628	748.824	0.000	-133.648
400.566	748.940	0.000	-133.181
400.504	749.056	0.000	-132.712
400.442	749.172	0.000	-132.243
400.380	749.288	0.000	-131.776
400.318	749.404	0.000	-131.312
400.256	749.520	0.000	-130.850
400.194	749.637	0.000	-130.392
400.132	749.753	0.000	-129.938
400.070	749.869	0.000	-129.486
400.008	749.986	0.000	-129.038
399.946	750.102	0.000	-128.593
399.884	750.218	0.000	-128.150
399.821	750.335	0.000	-127.709
399.759	750.451	0.000	-127.271
399.697	750.568	0.000	-126.834
399.635	750.685	0.000	-126.399
399.573	750.801	0.000	-125.965
399.511	750.918	0.000	-125.533
399.449	751.035	0.000	-125.101
399.387	751.152	0.000	-124.670
399.325	751.268	0.000	-124.240
399.263	751.385	0.000	-123.810
399.201	751.502	0.000	-123.381
399.139	751.619	0.000	-122.952
399.076	751.736	0.000	-122.525
399.014	751.853	0.000	-122.097
398.952	751.970	0.000	-121.669
398.890	752.087	0.000	-121.242
398.828	752.204	0.000	-120.814
398.766	752.321	0.000	-120.388
398.704	752.438	0.000	-119.960
398.642	752.555	0.000	-119.533
398.580	752.672	0.000	-119.106
398.518	752.790	0.000	-118.678
398.456	752.907	0.000	-118.250
398.394	753.024	0.000	-117.821
398.332	753.142	0.000	-117.393
398.269	753.259	0.000	-116.963
398.207	753.376	0.000	-116.533
398.145	753.494	0.000	-116.102
398.083	753.611	0.000	-115.670
398.021	753.729	0.000	-115.238
397.959	753.846	0.000	-114.803
397.897	753.964	0.000	-114.368
397.835	754.082	0.000	-113.931
397.773	754.199	0.000	-113.493
397.711	754.317	0.000	-113.052
397.649	754.435	0.000	-112.609
397.587	754.553	0.000	-112.165
397.524	754.671	0.000	-111.717
397.462	754.788	0.000	-111.266
397.400	754.906	0.000	-110.811
397.338	755.024	0.000	-110.352
397.276	755.142	0.000	-109.888
397.214	755.260	0.000	-109.418
397.152	755.378	0.000	-108.942
397.090	755.496	0.000	-108.458
397.028	755.615	0.000	-107.965
396.966	755.733	0.000	-107.464
396.904	755.851	0.000	-106.951
396.842	755.969	0.000	-106.429
396.780	756.087	0.000	-105.898
396.717	756.206	0.000	-105.355
396.655	756.324	0.000	-104.804
396.593	756.443	0.000	-104.243
396.531	756.561	0.000	-103.673
396.469	756.679	0.000	-103.090
396.407	756.798	0.000	-102.491
396.345	756.916	0.000	-101.868
396.283	757.035	0.000	-101.208
396.221	757.154	0.000	-100.513
396.159	757.272	0.000	-99.793
396.097	757.391	0.000	-99.058
396.035	757.510	0.000	-98.314
395.972	757.628	0.000	-97.564
395.910	757.747	0.000	-96.810
395.848	757.866	0.000	-96.052
395.786	757.985	0.000	-95.293
395.724	758.104	0.000	-94.531
395.662	758.223	0.000	-93.768
395.600	758.342	0.000	-93.003
395.538	758.461	0.000	-92.238
395.476	758.580	0.000	-91.472
395.414	758.699	0.000	-90.704
395.352	758.818	0.000	-89.938
395.290	758.937	0.000	-89.170
395.227	759.057	0.000	-88.402
395.165	759.176	0.000	-87.634
395.103	759.295	0.000	-86.865
395.041	759.414	0.000	-86.097
394.979	759.534	0.000	-85.328
394.917	759.653	0.000	-84.560
394.855	759.773	0.000	-83.790
394.793	759.892	0.000	-83.022
394.731	760.012	0.000	-82.253
394.669	760.131	0.000	-81.484
394.607	760.251	0.000	-80.715
394.545	760.370	0.000	-79.946
394.483	760.490	0.000	-79.176
394.420	760.610	0.000	-78.405
394.358	760.729	0.000	-77.633
394.296	760.849	0.000	-76.860
394.234	760.969	0.000	-76.084
394.172	761.089	0.000	-75.303
394.110	761.209	0.000	-74.509
394.048	761.329	0.000	-73.673
393.986	761.449	0.000	-72.769
393.924	761.569	0.000	-71.826
393.862	761.689	0.000	-70.870
393.800	761.809	0.000	-69.908
393.738	761.929	0.000	-68.940
393.675	762.049	0.000	-67.968
393.613	762.169	0.000	-66.990
393.551	762.289	0.000	-66.006
393.489	762.410	0.000	-65.015
393.427	762.530	0.000	-64.015
393.365	762.650	0.000	-63.008
393.303	762.771	0.000	-61.990
393.241	762.891	0.000	-60.965
393.179	763.012	0.000	-59.932
393.117	763.132	0.000	-58.893
393.055	763.253	0.000	-57.849
392.993	763.373	0.000	-56.802
392.931	763.494	0.000	-55.751
392.868	763.615	0.000	-54.698
392.806	763.735	0.000	-53.647
392.744	763.856	0.000	-52.592
392.682	763.977	0.000	-51.539
392.620	764.097	0.000	-50.488
392.558	764.218	0.000	-49.438
392.496	764.339	0.000	-48.390
392.434	764.460	0.000	-47.344
392.372	764.581	0.000	-46.303
392.310	764.702	0.000	-45.264
392.248	764.823	0.000	-44.230
392.186	764.944	0.000	-43.203
392.123	765.065	0.000	-42.180
392.061	765.186	0.000	-41.165
391.999	765.308	0.000	-40.157
391.937	765.429	0.000	-39.159
391.875	765.550	0.000	-38.171
391.813	765.671	0.000	-37.197
391.751	765.793	0.000	-36.237
391.689	765.914	0.000	-35.294
391.627	766.035	0.000	-34.374
391.565	766.157	0.000	-33.475
391.503	766.278	0.000	-32.603
391.441	766.400	0.000	-31.756
