[time (fs)]	[Fourier limited intensity]	[intensity]	[phase (rad)]
-491.622	0.000	0.000	27.246
-490.639	0.000	0.000	27.164
-489.655	0.000	0.000	27.083
-488.672	0.000	0.000	27.003
-487.689	0.000	0.000	26.923
-486.706	0.000	0.000	26.843
-485.722	0.000	0.000	26.764
-484.739	0.000	0.000	26.685
-483.756	0.000	0.000	26.606
-482.773	0.000	0.000	26.528
-481.789	0.000	0.000	26.450
-480.806	0.000	0.000	26.372
-479.823	0.000	0.000	26.293
-478.840	0.000	0.000	26.215
-477.856	0.000	0.000	26.136
-476.873	0.000	0.000	26.057
-475.890	0.000	0.000	25.978
-474.907	0.000	0.000	25.898
-473.923	0.000	0.000	25.817
-472.940	0.000	0.000	25.736
-471.957	0.000	0.000	25.655
-470.974	0.000	0.000	25.573
-469.990	0.000	0.000	25.490
-469.007	0.000	0.000	25.406
-468.024	0.000	0.000	25.322
-467.041	0.000	0.000	25.237
-466.057	0.000	0.000	25.151
-465.074	0.000	0.000	25.066
-464.091	0.000	0.000	24.980
-463.108	0.000	0.000	24.893
-462.124	0.000	0.000	24.807
-461.141	0.000	0.000	24.720
-460.158	0.000	0.000	24.634
-459.175	0.000	0.000	24.548
-458.191	0.000	0.000	24.462
-457.208	0.000	0.000	24.377
-456.225	0.000	0.000	24.292
-455.242	0.000	0.000	24.208
-454.259	0.000	0.000	24.125
-453.275	0.000	0.000	24.042
-452.292	0.000	0.000	23.960
-451.309	0.000	0.000	23.879
-450.326	0.000	0.000	23.798
-449.342	0.000	0.000	23.718
-448.359	0.000	0.000	23.639
-447.376	0.000	0.000	23.560
-446.393	0.000	0.000	23.482
-445.409	0.000	0.000	23.404
-444.426	0.000	0.000	23.326
-443.443	0.000	0.000	23.248
-442.460	0.000	0.000	23.171
-441.476	0.000	0.000	23.093
-440.493	0.000	0.000	23.015
-439.510	0.000	0.000	22.937
-438.527	0.000	0.000	22.858
-437.543	0.000	0.000	22.779
-436.560	0.000	0.000	22.699
-435.577	0.000	0.000	22.619
-434.594	0.000	0.000	22.537
-433.610	0.000	0.000	22.455
-432.627	0.000	0.000	22.372
-431.644	0.000	0.000	22.288
-430.661	0.000	0.000	22.204
-429.677	0.000	0.000	22.118
-428.694	0.000	0.000	22.032
-427.711	0.000	0.000	21.945
-426.728	0.000	0.000	21.858
-425.744	0.000	0.000	21.770
-424.761	0.000	0.000	21.682
-423.778	0.000	0.000	21.593
-422.795	0.000	0.000	21.505
-421.811	0.000	0.000	21.417
-420.828	0.000	0.000	21.330
-419.845	0.000	0.000	21.243
-418.862	0.000	0.000	21.157
-417.879	0.000	0.000	21.071
-416.895	0.000	0.000	20.986
-415.912	0.000	0.000	20.902
-414.929	0.000	0.000	20.820
-413.946	0.000	0.000	20.738
-412.962	0.000	0.000	20.656
-411.979	0.000	0.000	20.576
-410.996	0.000	0.000	20.497
-410.013	0.000	0.000	20.418
-409.029	0.000	0.000	20.340
-408.046	0.000	0.000	20.263
-407.063	0.000	0.000	20.185
-406.080	0.000	0.000	20.108
-405.096	0.000	0.000	20.032
-404.113	0.000	0.000	19.955
-403.130	0.000	0.000	19.878
-402.147	0.000	0.000	19.801
-401.163	0.000	0.000	19.724
-400.180	0.000	0.000	19.646
-399.197	0.000	0.000	19.567
-398.214	0.000	0.000	19.488
-397.230	0.000	0.000	19.407
-396.247	0.000	0.000	19.326
-395.264	0.000	0.000	19.244
-394.281	0.000	0.000	19.161
-393.297	0.000	0.000	19.078
-392.314	0.000	0.000	18.993
-391.331	0.000	0.000	18.907
-390.348	0.000	0.000	18.820
-389.364	0.000	0.000	18.733
-388.381	0.000	0.000	18.646
-387.398	0.000	0.000	18.558
-386.415	0.000	0.000	18.469
-385.431	0.000	0.000	18.381
-384.448	0.000	0.000	18.293
-383.465	0.000	0.000	18.206
-382.482	0.000	0.000	18.119
-381.499	0.000	0.000	18.033
-380.515	0.000	0.000	17.947
-379.532	0.000	0.000	17.863
-378.549	0.000	0.000	17.780
-377.566	0.000	0.000	17.698
-376.582	0.000	0.000	17.617
-375.599	0.000	0.000	17.537
-374.616	0.000	0.000	17.458
-373.633	0.000	0.000	17.380
-372.649	0.000	0.000	17.304
-371.666	0.000	0.000	17.228
-370.683	0.000	0.000	17.152
-369.700	0.000	0.000	17.078
-368.716	0.000	0.000	17.004
-367.733	0.000	0.000	16.930
-366.750	0.000	0.000	16.856
-365.767	0.000	0.000	16.783
-364.783	0.000	0.000	16.709
-363.800	0.000	0.000	16.635
-362.817	0.000	0.000	16.560
-361.834	0.000	0.000	16.485
-360.850	0.000	0.000	16.410
-359.867	0.000	0.000	16.333
-358.884	0.000	0.000	16.256
-357.901	0.000	0.000	16.177
-356.917	0.000	0.000	16.098
-355.934	0.000	0.000	16.017
-354.951	0.000	0.000	15.935
-353.968	0.000	0.000	15.851
-352.984	0.000	0.000	15.767
-352.001	0.000	0.000	15.681
-351.018	0.000	0.000	15.595
-350.035	0.000	0.000	15.507
-349.051	0.000	0.000	15.419
-348.068	0.000	0.000	15.330
-347.085	0.000	0.000	15.241
-346.102	0.000	0.000	15.152
-345.118	0.000	0.000	15.063
-344.135	0.000	0.000	14.975
-343.152	0.000	0.000	14.887
-342.169	0.000	0.000	14.800
-341.186	0.000	0.000	14.714
-340.202	0.000	0.000	14.629
-339.219	0.000	0.000	14.545
-338.236	0.000	0.000	14.463
-337.253	0.000	0.000	14.382
-336.269	0.000	0.000	14.302
-335.286	0.000	0.000	14.223
-334.303	0.000	0.000	14.145
-333.320	0.000	0.000	14.068
-332.336	0.000	0.000	13.993
-331.353	0.000	0.000	13.917
-330.370	0.000	0.000	13.843
-329.387	0.000	0.000	13.769
-328.403	0.000	0.000	13.696
-327.420	0.000	0.000	13.622
-326.437	0.000	0.000	13.549
-325.454	0.000	0.000	13.475
-324.470	0.000	0.000	13.401
-323.487	0.000	0.000	13.326
-322.504	0.000	0.000	13.251
-321.521	0.000	0.000	13.175
-320.537	0.000	0.000	13.099
-319.554	0.000	0.000	13.021
-318.571	0.000	0.000	12.942
-317.588	0.000	0.000	12.861
-316.604	0.000	0.000	12.780
-315.621	0.000	0.000	12.697
-314.638	0.000	0.000	12.613
-313.655	0.000	0.000	12.527
-312.671	0.000	0.000	12.441
-311.688	0.000	0.000	12.353
-310.705	0.000	0.000	12.265
-309.722	0.000	0.000	12.176
-308.738	0.000	0.000	12.087
-307.755	0.000	0.000	11.997
-306.772	0.000	0.000	11.908
-305.789	0.000	0.000	11.819
-304.806	0.000	0.000	11.731
-303.822	0.000	0.000	11.644
-302.839	0.000	0.000	11.557
-301.856	0.000	0.000	11.472
-300.873	0.000	0.000	11.388
-299.889	0.000	0.000	11.305
-298.906	0.000	0.000	11.224
-297.923	0.000	0.000	11.144
-296.940	0.000	0.000	11.066
-295.956	0.000	0.000	10.988
-294.973	0.000	0.000	10.912
-293.990	0.000	0.000	10.837
-293.007	0.000	0.000	10.763
-292.023	0.000	0.000	10.690
-291.040	0.000	0.000	10.618
-290.057	0.000	0.000	10.546
-289.074	0.000	0.000	10.474
-288.090	0.000	0.000	10.403
-287.107	0.000	0.000	10.332
-286.124	0.000	0.000	10.261
-285.141	0.000	0.000	10.190
-284.157	0.000	0.000	10.119
-283.174	0.000	0.000	10.047
-282.191	0.000	0.000	9.975
-281.208	0.000	0.000	9.903
-280.224	0.000	0.000	9.830
-279.241	0.000	0.000	9.756
-278.258	0.000	0.000	9.682
-277.275	0.000	0.000	9.607
-276.291	0.000	0.000	9.532
-275.308	0.000	0.000	9.456
-274.325	0.000	0.000	9.379
-273.342	0.000	0.000	9.302
-272.358	0.000	0.000	9.225
-271.375	0.000	0.000	9.148
-270.392	0.000	0.000	9.071
-269.409	0.000	0.000	8.994
-268.426	0.000	0.000	8.917
-267.442	0.000	0.000	8.840
-266.459	0.000	0.000	8.765
-265.476	0.000	0.000	8.690
-264.493	0.000	0.000	8.616
-263.509	0.000	0.000	8.542
-262.526	0.000	0.000	8.470
-261.543	0.000	0.000	8.399
-260.560	0.000	0.000	8.329
-259.576	0.000	0.000	8.261
-258.593	0.000	0.000	8.193
-257.610	0.000	0.000	8.126
-256.627	0.000	0.000	8.061
-255.643	0.000	0.000	7.997
-254.660	0.000	0.000	7.933
-253.677	0.000	0.000	7.871
-252.694	0.000	0.000	7.809
-251.710	0.000	0.000	7.748
-250.727	0.000	0.000	7.688
-249.744	0.000	0.000	7.628
-248.761	0.000	0.000	7.569
-247.777	0.000	0.000	7.510
-246.794	0.000	0.000	7.451
-245.811	0.000	0.000	7.393
-244.828	0.000	0.000	7.334
-243.844	0.000	0.000	7.275
-242.861	0.000	0.000	7.216
-241.878	0.000	0.000	7.157
-240.895	0.000	0.000	7.097
-239.911	0.000	0.000	7.037
-238.928	0.000	0.000	6.976
-237.945	0.000	0.000	6.914
-236.962	0.000	0.000	6.851
-235.978	0.000	0.000	6.787
-234.995	0.000	0.000	6.722
-234.012	0.000	0.000	6.655
-233.029	0.000	0.000	6.587
-232.045	0.000	0.000	6.518
-231.062	0.000	0.000	6.446
-230.079	0.000	0.000	6.373
-229.096	0.000	0.000	6.299
-228.113	0.000	0.000	6.222
-227.129	0.000	0.000	6.143
-226.146	0.000	0.000	6.062
-225.163	0.000	0.000	5.980
-224.180	0.000	0.000	5.895
-223.196	0.000	0.000	5.808
-222.213	0.000	0.000	5.719
-221.230	0.000	0.000	5.629
-220.247	0.000	0.000	5.537
-219.263	0.000	0.000	5.443
-218.280	0.000	0.000	5.348
-217.297	0.000	0.000	5.252
-216.314	0.000	0.000	5.155
-215.330	0.000	0.000	5.058
-214.347	0.000	0.000	4.960
-213.364	0.000	0.000	4.862
-212.381	0.000	0.000	4.765
-211.397	0.000	0.000	4.668
-210.414	0.000	0.000	4.572
-209.431	0.000	0.000	4.477
-208.448	0.000	0.000	4.383
-207.464	0.000	0.000	4.290
-206.481	0.000	0.000	4.200
-205.498	0.000	0.000	4.111
-204.515	0.000	0.000	4.024
-203.531	0.000	0.000	3.939
-202.548	0.000	0.000	3.857
-201.565	0.000	0.000	3.777
-200.582	0.000	0.000	3.699
-199.598	0.000	0.000	3.623
-198.615	0.000	0.000	3.550
-197.632	0.000	0.000	3.479
-196.649	0.000	0.000	3.411
-195.665	0.000	0.000	3.344
-194.682	0.000	0.000	3.281
-193.699	0.000	0.000	3.219
-192.716	0.000	0.000	3.160
-191.732	0.000	0.000	3.103
-190.749	0.000	0.000	3.048
-189.766	0.000	0.000	2.995
-188.783	0.000	0.000	2.944
-187.800	0.000	0.001	2.895
-186.816	0.000	0.001	2.848
-185.833	0.000	0.001	2.802
-184.850	0.000	0.001	2.758
-183.867	0.000	0.001	2.716
-182.883	0.000	0.001	2.676
-181.900	0.000	0.001	2.637
-180.917	0.000	0.001	2.600
-179.934	0.000	0.001	2.564
-178.950	0.000	0.001	2.529
-177.967	0.000	0.001	2.495
-176.984	0.000	0.001	2.463
-176.001	0.000	0.001	2.432
-175.017	0.000	0.001	2.403
-174.034	0.000	0.001	2.374
-173.051	0.000	0.001	2.347
-172.068	0.000	0.001	2.321
-171.084	0.000	0.001	2.295
-170.101	0.000	0.001	2.271
-169.118	0.000	0.001	2.248
-168.135	0.000	0.001	2.226
-167.151	0.000	0.001	2.205
-166.168	0.000	0.001	2.185
-165.185	0.000	0.001	2.167
-164.202	0.000	0.001	2.149
-163.218	0.000	0.001	2.132
-162.235	0.000	0.001	2.117
-161.252	0.000	0.001	2.103
-160.269	0.000	0.001	2.090
-159.285	0.000	0.001	2.079
-158.302	0.000	0.001	2.069
-157.319	0.000	0.001	2.060
-156.336	0.000	0.001	2.054
-155.352	0.000	0.001	2.049
-154.369	0.000	0.001	2.046
-153.386	0.000	0.000	2.046
-152.403	0.000	0.000	2.048
-151.420	0.000	0.000	2.052
-150.436	0.000	0.000	2.060
-149.453	0.000	0.000	2.072
-148.470	0.000	0.000	2.087
-147.487	0.000	0.000	2.106
-146.503	0.000	0.000	2.130
-145.520	0.000	0.000	2.158
-144.537	0.000	0.000	2.192
-143.554	0.000	0.000	2.231
-142.570	0.000	0.000	2.276
-141.587	0.000	0.000	2.325
-140.604	0.000	0.000	2.378
-139.621	0.000	0.000	2.435
-138.637	0.000	0.000	2.493
-137.654	0.000	0.000	2.552
-136.671	0.000	0.000	2.609
-135.688	0.000	0.000	2.663
-134.704	0.000	0.000	2.712
-133.721	0.000	0.000	2.755
-132.738	0.000	0.000	2.792
-131.755	0.000	0.000	2.823
-130.771	0.000	0.000	2.846
-129.788	0.000	0.000	2.863
-128.805	0.000	0.000	2.873
-127.822	0.000	0.000	2.877
-126.838	0.000	0.000	2.876
-125.855	0.000	0.000	2.870
-124.872	0.000	0.000	2.858
-123.889	0.000	0.000	2.843
-122.905	0.000	0.000	2.824
-121.922	0.000	0.001	2.800
-120.939	0.000	0.001	2.774
-119.956	0.000	0.001	2.745
-118.972	0.000	0.001	2.713
-117.989	0.000	0.001	2.679
-117.006	0.000	0.001	2.643
-116.023	0.001	0.001	2.605
-115.039	0.001	0.001	2.565
-114.056	0.001	0.001	2.524
-113.073	0.001	0.001	2.482
-112.090	0.001	0.001	2.439
-111.107	0.001	0.001	2.395
-110.123	0.001	0.001	2.351
-109.140	0.001	0.002	2.306
-108.157	0.001	0.002	2.261
-107.174	0.001	0.002	2.216
-106.190	0.001	0.002	2.171
-105.207	0.001	0.002	2.125
-104.224	0.001	0.002	2.080
-103.241	0.001	0.003	2.035
-102.257	0.001	0.003	1.990
-101.274	0.001	0.003	1.946
-100.291	0.001	0.003	1.901
-99.308	0.001	0.004	1.857
-98.324	0.002	0.004	1.814
-97.341	0.002	0.004	1.771
-96.358	0.002	0.005	1.728
-95.375	0.002	0.005	1.686
-94.391	0.002	0.006	1.644
-93.408	0.002	0.006	1.603
-92.425	0.002	0.007	1.562
-91.442	0.002	0.008	1.521
-90.458	0.002	0.008	1.481
-89.475	0.002	0.009	1.442
-88.492	0.002	0.010	1.403
-87.509	0.002	0.011	1.365
-86.525	0.003	0.012	1.327
-85.542	0.003	0.013	1.289
-84.559	0.003	0.014	1.253
-83.576	0.003	0.015	1.217
-82.592	0.003	0.017	1.181
-81.609	0.003	0.018	1.146
-80.626	0.004	0.020	1.112
-79.643	0.004	0.022	1.078
-78.659	0.004	0.024	1.045
-77.676	0.004	0.026	1.013
-76.693	0.005	0.028	0.981
-75.710	0.005	0.031	0.950
-74.727	0.005	0.034	0.920
-73.743	0.006	0.037	0.890
-72.760	0.006	0.040	0.861
-71.777	0.007	0.043	0.833
-70.794	0.007	0.047	0.805
-69.810	0.008	0.051	0.778
-68.827	0.008	0.056	0.752
-67.844	0.009	0.060	0.726
-66.861	0.010	0.065	0.701
-65.877	0.011	0.071	0.677
-64.894	0.012	0.077	0.653
-63.911	0.013	0.083	0.630
-62.928	0.014	0.090	0.608
-61.944	0.016	0.097	0.586
-60.961	0.017	0.104	0.565
-59.978	0.019	0.112	0.544
-58.995	0.021	0.121	0.524
-58.011	0.023	0.130	0.505
-57.028	0.026	0.139	0.486
-56.045	0.029	0.149	0.468
-55.062	0.032	0.160	0.450
-54.078	0.035	0.171	0.432
-53.095	0.039	0.183	0.416
-52.112	0.044	0.195	0.399
-51.129	0.049	0.208	0.383
-50.145	0.054	0.221	0.368
-49.162	0.060	0.235	0.353
-48.179	0.067	0.250	0.338
-47.196	0.074	0.265	0.324
-46.212	0.082	0.281	0.310
-45.229	0.091	0.298	0.297
-44.246	0.100	0.315	0.284
-43.263	0.110	0.332	0.271
-42.279	0.122	0.350	0.259
-41.296	0.134	0.369	0.247
-40.313	0.147	0.388	0.236
-39.330	0.161	0.407	0.224
-38.347	0.176	0.427	0.213
-37.363	0.192	0.447	0.203
-36.380	0.209	0.468	0.192
-35.397	0.227	0.489	0.182
-34.414	0.246	0.510	0.173
-33.430	0.266	0.532	0.163
-32.447	0.288	0.554	0.154
-31.464	0.310	0.575	0.145
-30.481	0.333	0.597	0.137
-29.497	0.357	0.619	0.128
-28.514	0.382	0.641	0.120
-27.531	0.408	0.663	0.112
-26.548	0.435	0.685	0.105
-25.564	0.462	0.706	0.098
-24.581	0.490	0.728	0.091
-23.598	0.518	0.748	0.084
-22.615	0.547	0.769	0.077
-21.631	0.576	0.789	0.071
-20.648	0.605	0.808	0.065
-19.665	0.634	0.827	0.059
-18.682	0.663	0.846	0.053
-17.698	0.691	0.863	0.048
-16.715	0.720	0.880	0.043
-15.732	0.747	0.896	0.038
-14.749	0.774	0.910	0.034
-13.765	0.800	0.924	0.029
-12.782	0.825	0.937	0.025
-11.799	0.849	0.949	0.021
-10.816	0.871	0.960	0.018
-9.832	0.893	0.969	0.015
-8.849	0.912	0.978	0.012
-7.866	0.930	0.985	0.009
-6.883	0.946	0.990	0.006
-5.899	0.960	0.995	0.004
-4.916	0.972	0.998	0.003
-3.933	0.982	1.000	0.001
-2.950	0.990	1.000	0.000
-1.966	0.995	0.999	-0.001
-0.983	0.999	0.997	-0.001
0.000	1.000	0.993	-0.001
0.983	0.999	0.988	-0.001
1.966	0.995	0.981	-0.000
2.950	0.990	0.974	0.001
3.933	0.982	0.965	0.002
4.916	0.972	0.954	0.004
5.899	0.960	0.943	0.006
6.883	0.946	0.930	0.009
7.866	0.930	0.916	0.013
8.849	0.912	0.901	0.016
9.832	0.893	0.886	0.021
10.816	0.871	0.869	0.026
11.799	0.849	0.851	0.031
12.782	0.825	0.832	0.037
13.765	0.800	0.813	0.044
14.749	0.774	0.793	0.051
15.732	0.747	0.773	0.059
16.715	0.720	0.752	0.068
17.698	0.691	0.730	0.077
18.682	0.663	0.709	0.087
19.665	0.634	0.687	0.099
20.648	0.605	0.665	0.110
21.631	0.576	0.642	0.123
22.615	0.547	0.620	0.137
23.598	0.518	0.598	0.152
24.581	0.490	0.576	0.167
25.564	0.462	0.555	0.184
26.548	0.435	0.534	0.202
27.531	0.408	0.513	0.220
28.514	0.382	0.492	0.240
29.497	0.357	0.472	0.262
30.481	0.333	0.453	0.284
31.464	0.310	0.435	0.308
32.447	0.288	0.417	0.333
33.430	0.266	0.400	0.359
34.414	0.246	0.383	0.386
35.397	0.227	0.368	0.415
36.380	0.209	0.353	0.445
37.363	0.192	0.339	0.476
38.347	0.176	0.326	0.508
39.330	0.161	0.314	0.542
40.313	0.147	0.302	0.577
41.296	0.134	0.292	0.612
42.279	0.122	0.282	0.649
43.263	0.110	0.274	0.686
44.246	0.100	0.266	0.724
45.229	0.091	0.258	0.763
46.212	0.082	0.252	0.802
47.196	0.074	0.246	0.841
48.179	0.067	0.241	0.880
49.162	0.060	0.237	0.920
50.145	0.054	0.233	0.959
51.129	0.049	0.229	0.998
52.112	0.044	0.226	1.037
53.095	0.039	0.224	1.075
54.078	0.035	0.222	1.113
55.062	0.032	0.220	1.149
56.045	0.029	0.218	1.186
57.028	0.026	0.217	1.221
58.011	0.023	0.215	1.255
58.995	0.021	0.214	1.289
59.978	0.019	0.213	1.322
60.961	0.017	0.211	1.353
61.944	0.016	0.210	1.384
62.928	0.014	0.208	1.415
63.911	0.013	0.207	1.444
64.894	0.012	0.205	1.472
65.877	0.011	0.203	1.500
66.861	0.010	0.200	1.527
67.844	0.009	0.198	1.553
68.827	0.008	0.195	1.579
69.810	0.008	0.192	1.604
70.794	0.007	0.188	1.629
71.777	0.007	0.185	1.654
72.760	0.006	0.181	1.677
73.743	0.006	0.176	1.701
74.727	0.005	0.172	1.724
75.710	0.005	0.167	1.748
76.693	0.005	0.161	1.771
77.676	0.004	0.156	1.794
78.659	0.004	0.150	1.817
79.643	0.004	0.145	1.840
80.626	0.004	0.139	1.863
81.609	0.003	0.133	1.887
82.592	0.003	0.127	1.911
83.576	0.003	0.120	1.935
84.559	0.003	0.114	1.960
85.542	0.003	0.108	1.986
86.525	0.003	0.102	2.012
87.509	0.002	0.096	2.039
88.492	0.002	0.090	2.067
89.475	0.002	0.084	2.096
90.458	0.002	0.078	2.127
91.442	0.002	0.073	2.159
92.425	0.002	0.067	2.192
93.408	0.002	0.062	2.227
94.391	0.002	0.057	2.265
95.375	0.002	0.053	2.304
96.358	0.002	0.048	2.345
97.341	0.002	0.044	2.389
98.324	0.002	0.041	2.436
99.308	0.001	0.037	2.485
100.291	0.001	0.034	2.538
101.274	0.001	0.031	2.594
102.257	0.001	0.028	2.653
103.241	0.001	0.026	2.715
104.224	0.001	0.024	2.780
105.207	0.001	0.022	2.849
106.190	0.001	0.021	2.920
107.174	0.001	0.020	2.993
108.157	0.001	0.018	3.069
109.140	0.001	0.018	3.145
110.123	0.001	0.017	3.222
111.107	0.001	0.016	3.299
112.090	0.001	0.016	3.374
113.073	0.001	0.016	3.449
114.056	0.001	0.015	3.521
115.039	0.001	0.015	3.591
116.023	0.001	0.015	3.657
117.006	0.000	0.015	3.721
117.989	0.000	0.015	3.782
118.972	0.000	0.015	3.840
119.956	0.000	0.016	3.895
120.939	0.000	0.016	3.947
121.922	0.000	0.016	3.996
122.905	0.000	0.016	4.043
123.889	0.000	0.016	4.088
124.872	0.000	0.016	4.131
125.855	0.000	0.016	4.172
126.838	0.000	0.015	4.212
127.822	0.000	0.015	4.251
128.805	0.000	0.015	4.288
129.788	0.000	0.015	4.325
130.771	0.000	0.014	4.361
131.755	0.000	0.014	4.396
132.738	0.000	0.013	4.432
133.721	0.000	0.013	4.468
134.704	0.000	0.012	4.504
135.688	0.000	0.012	4.541
136.671	0.000	0.011	4.578
137.654	0.000	0.011	4.617
138.637	0.000	0.010	4.657
139.621	0.000	0.009	4.698
140.604	0.000	0.009	4.742
141.587	0.000	0.008	4.788
142.570	0.000	0.008	4.836
143.554	0.000	0.007	4.888
144.537	0.000	0.007	4.943
145.520	0.000	0.006	5.001
146.503	0.000	0.006	5.063
147.487	0.000	0.005	5.129
148.470	0.000	0.005	5.199
149.453	0.000	0.005	5.274
150.436	0.000	0.004	5.352
151.420	0.000	0.004	5.434
152.403	0.000	0.004	5.518
153.386	0.000	0.004	5.604
154.369	0.000	0.004	5.692
155.352	0.000	0.004	5.779
156.336	0.000	0.004	5.864
157.319	0.000	0.004	5.948
158.302	0.000	0.004	6.028
159.285	0.000	0.004	6.105
160.269	0.000	0.004	6.177
161.252	0.000	0.004	6.246
162.235	0.000	0.004	6.309
163.218	0.000	0.004	6.369
164.202	0.000	0.005	6.424
165.185	0.000	0.005	6.476
166.168	0.000	0.005	6.524
167.151	0.000	0.005	6.569
168.135	0.000	0.005	6.611
169.118	0.000	0.006	6.651
170.101	0.000	0.006	6.688
171.084	0.000	0.006	6.724
172.068	0.000	0.006	6.757
173.051	0.000	0.006	6.790
174.034	0.000	0.006	6.821
175.017	0.000	0.006	6.851
176.001	0.000	0.006	6.880
176.984	0.000	0.006	6.909
177.967	0.000	0.006	6.938
178.950	0.000	0.006	6.966
179.934	0.000	0.006	6.995
180.917	0.000	0.005	7.024
181.900	0.000	0.005	7.054
182.883	0.000	0.005	7.085
183.867	0.000	0.005	7.116
184.850	0.000	0.005	7.149
185.833	0.000	0.004	7.184
186.816	0.000	0.004	7.221
187.800	0.000	0.004	7.260
188.783	0.000	0.003	7.302
189.766	0.000	0.003	7.348
190.749	0.000	0.003	7.397
191.732	0.000	0.003	7.451
192.716	0.000	0.002	7.510
193.699	0.000	0.002	7.576
194.682	0.000	0.002	7.648
195.665	0.000	0.002	7.727
196.649	0.000	0.002	7.815
197.632	0.000	0.001	7.911
198.615	0.000	0.001	8.015
199.598	0.000	0.001	8.126
200.582	0.000	0.001	8.243
201.565	0.000	0.001	8.363
202.548	0.000	0.001	8.485
203.531	0.000	0.001	8.604
204.515	0.000	0.001	8.718
205.498	0.000	0.001	8.827
206.481	0.000	0.001	8.927
207.464	0.000	0.001	9.020
208.448	0.000	0.002	9.106
209.431	0.000	0.002	9.183
210.414	0.000	0.002	9.254
211.397	0.000	0.002	9.320
212.381	0.000	0.002	9.379
213.364	0.000	0.002	9.435
214.347	0.000	0.002	9.487
